#  E (eV)   dos(E)     Int dos(E) EFermi =    7.364 eV
 -11.000  0.3837E-03  0.3837E-04
 -10.900  0.2475E-01  0.2514E-02
 -10.800  0.3120E+00  0.3372E-01
 -10.700  0.1113E+01  0.1450E+00
 -10.600  0.2005E+01  0.3455E+00
 -10.500  0.2903E+01  0.6358E+00
 -10.400  0.3999E+01  0.1036E+01
 -10.300  0.5564E+01  0.1592E+01
 -10.200  0.8336E+01  0.2426E+01
 -10.100  0.1360E+02  0.3786E+01
 -10.000  0.1900E+02  0.5685E+01
  -9.900  0.1725E+02  0.7410E+01
  -9.800  0.5532E+01  0.7963E+01
  -9.700  0.3620E+00  0.8000E+01
  -9.600  0.3833E-02  0.8000E+01
  -9.500  0.6020E-05  0.8000E+01
  -9.400  0.1351E-08  0.8000E+01
  -9.300  0.4255E-13  0.8000E+01
  -9.200  0.1863E-18  0.8000E+01
  -9.100  0.1127E-24  0.8000E+01
  -9.000  0.9389E-32  0.8000E+01
  -8.900  0.1073E-39  0.8000E+01
  -8.800  0.1678E-48  0.8000E+01
  -8.700  0.3587E-58  0.8000E+01
  -8.600  0.1046E-68  0.8000E+01
  -8.500  0.4156E-80  0.8000E+01
  -8.400  0.5622E-84  0.8000E+01
  -8.300  0.5622E-84  0.8000E+01
  -8.200  0.5622E-84  0.8000E+01
  -8.100  0.5622E-84  0.8000E+01
  -8.000  0.5622E-84  0.8000E+01
  -7.900  0.5622E-84  0.8000E+01
  -7.800  0.5622E-84  0.8000E+01
  -7.700  0.5622E-84  0.8000E+01
  -7.600  0.5622E-84  0.8000E+01
  -7.500  0.5622E-84  0.8000E+01
  -7.400  0.5622E-84  0.8000E+01
  -7.300  0.5622E-84  0.8000E+01
  -7.200  0.5622E-84  0.8000E+01
  -7.100  0.5622E-84  0.8000E+01
  -7.000  0.5622E-84  0.8000E+01
  -6.900  0.5622E-84  0.8000E+01
  -6.800  0.5622E-84  0.8000E+01
  -6.700  0.5622E-84  0.8000E+01
  -6.600  0.5622E-84  0.8000E+01
  -6.500  0.5622E-84  0.8000E+01
  -6.400  0.5622E-84  0.8000E+01
  -6.300  0.5622E-84  0.8000E+01
  -6.200  0.5622E-84  0.8000E+01
  -6.100  0.5622E-84  0.8000E+01
  -6.000  0.5622E-84  0.8000E+01
  -5.900  0.5622E-84  0.8000E+01
  -5.800  0.5622E-84  0.8000E+01
  -5.700  0.5622E-84  0.8000E+01
  -5.600  0.5622E-84  0.8000E+01
  -5.500  0.5622E-84  0.8000E+01
  -5.400  0.5622E-84  0.8000E+01
  -5.300  0.5622E-84  0.8000E+01
  -5.200  0.5622E-84  0.8000E+01
  -5.100  0.5622E-84  0.8000E+01
  -5.000  0.5622E-84  0.8000E+01
  -4.900  0.5622E-84  0.8000E+01
  -4.800  0.5622E-84  0.8000E+01
  -4.700  0.5622E-84  0.8000E+01
  -4.600  0.5622E-84  0.8000E+01
  -4.500  0.5622E-84  0.8000E+01
  -4.400  0.5622E-84  0.8000E+01
  -4.300  0.5622E-84  0.8000E+01
  -4.200  0.5622E-84  0.8000E+01
  -4.100  0.5622E-84  0.8000E+01
  -4.000  0.5622E-84  0.8000E+01
  -3.900  0.5622E-84  0.8000E+01
  -3.800  0.5622E-84  0.8000E+01
  -3.700  0.5622E-84  0.8000E+01
  -3.600  0.5622E-84  0.8000E+01
  -3.500  0.5622E-84  0.8000E+01
  -3.400  0.5622E-84  0.8000E+01
  -3.300  0.5622E-84  0.8000E+01
  -3.200  0.5622E-84  0.8000E+01
  -3.100  0.5622E-84  0.8000E+01
  -3.000  0.5622E-84  0.8000E+01
  -2.900  0.5622E-84  0.8000E+01
  -2.800  0.5622E-84  0.8000E+01
  -2.700  0.5622E-84  0.8000E+01
  -2.600  0.5622E-84  0.8000E+01
  -2.500  0.5622E-84  0.8000E+01
  -2.400  0.5622E-84  0.8000E+01
  -2.300  0.5622E-84  0.8000E+01
  -2.200  0.5622E-84  0.8000E+01
  -2.100  0.5622E-84  0.8000E+01
  -2.000  0.5622E-84  0.8000E+01
  -1.900  0.5622E-84  0.8000E+01
  -1.800  0.5622E-84  0.8000E+01
  -1.700  0.5622E-84  0.8000E+01
  -1.600  0.5622E-84  0.8000E+01
  -1.500  0.5622E-84  0.8000E+01
  -1.400  0.5622E-84  0.8000E+01
  -1.300  0.5622E-84  0.8000E+01
  -1.200  0.5622E-84  0.8000E+01
  -1.100  0.5622E-84  0.8000E+01
  -1.000  0.5622E-84  0.8000E+01
  -0.900  0.5622E-84  0.8000E+01
  -0.800  0.5622E-84  0.8000E+01
  -0.700  0.5622E-84  0.8000E+01
  -0.600  0.5622E-84  0.8000E+01
  -0.500  0.5622E-84  0.8000E+01
  -0.400  0.5622E-84  0.8000E+01
  -0.300  0.5907E-84  0.8000E+01
  -0.200  0.1425E-73  0.8000E+01
  -0.100  0.9543E-63  0.8000E+01
   0.000  0.8691E-53  0.8000E+01
   0.100  0.1079E-43  0.8000E+01
   0.200  0.1830E-35  0.8000E+01
   0.300  0.4267E-28  0.8000E+01
   0.400  0.1376E-21  0.8000E+01
   0.500  0.6206E-16  0.8000E+01
   0.600  0.3970E-11  0.8000E+01
   0.700  0.3672E-07  0.8000E+01
   0.800  0.5031E-04  0.8000E+01
   0.900  0.1058E-01  0.8001E+01
   1.000  0.3696E+00  0.8038E+01
   1.100  0.2663E+01  0.8304E+01
   1.200  0.6480E+01  0.8952E+01
   1.300  0.1101E+02  0.1005E+02
   1.400  0.1574E+02  0.1163E+02
   1.500  0.1554E+02  0.1318E+02
   1.600  0.1714E+02  0.1490E+02
   1.700  0.1988E+02  0.1688E+02
   1.800  0.2554E+02  0.1944E+02
   1.900  0.2887E+02  0.2232E+02
   2.000  0.2300E+02  0.2462E+02
   2.100  0.1827E+02  0.2645E+02
   2.200  0.1509E+02  0.2796E+02
   2.300  0.1264E+02  0.2922E+02
   2.400  0.1176E+02  0.3040E+02
   2.500  0.1010E+02  0.3141E+02
   2.600  0.4776E+01  0.3189E+02
   2.700  0.2017E+01  0.3209E+02
   2.800  0.1183E+02  0.3327E+02
   2.900  0.3885E+02  0.3716E+02
   3.000  0.5520E+02  0.4268E+02
   3.100  0.3738E+02  0.4642E+02
   3.200  0.1193E+02  0.4761E+02
   3.300  0.7708E+01  0.4838E+02
   3.400  0.7935E+01  0.4917E+02
   3.500  0.6863E+01  0.4986E+02
   3.600  0.6334E+01  0.5049E+02
   3.700  0.5520E+01  0.5105E+02
   3.800  0.5094E+01  0.5156E+02
   3.900  0.4546E+01  0.5201E+02
   4.000  0.4195E+01  0.5243E+02
   4.100  0.4165E+01  0.5285E+02
   4.200  0.3189E+01  0.5316E+02
   4.300  0.3536E+01  0.5352E+02
   4.400  0.2926E+01  0.5381E+02
   4.500  0.3617E+01  0.5417E+02
   4.600  0.4658E+01  0.5464E+02
   4.700  0.5291E+01  0.5517E+02
   4.800  0.6671E+01  0.5583E+02
   4.900  0.5690E+01  0.5640E+02
   5.000  0.5877E+01  0.5699E+02
   5.100  0.6570E+01  0.5765E+02
   5.200  0.6427E+01  0.5829E+02
   5.300  0.7878E+01  0.5908E+02
   5.400  0.8539E+01  0.5993E+02
   5.500  0.7688E+01  0.6070E+02
   5.600  0.8093E+01  0.6151E+02
   5.700  0.7968E+01  0.6231E+02
   5.800  0.8035E+01  0.6311E+02
   5.900  0.8122E+01  0.6392E+02
   6.000  0.7626E+01  0.6469E+02
   6.100  0.8536E+01  0.6554E+02
   6.200  0.8069E+01  0.6635E+02
   6.300  0.8029E+01  0.6715E+02
   6.400  0.8810E+01  0.6803E+02
   6.500  0.7822E+01  0.6881E+02
   6.600  0.7311E+01  0.6954E+02
   6.700  0.5632E+01  0.7011E+02
   6.800  0.4892E+01  0.7060E+02
   6.900  0.4103E+01  0.7101E+02
   7.000  0.3486E+01  0.7135E+02
   7.100  0.2819E+01  0.7164E+02
   7.200  0.2116E+01  0.7185E+02
   7.300  0.1184E+01  0.7197E+02
   7.400  0.3079E+00  0.7200E+02
   7.500  0.2127E-01  0.7200E+02
   7.600  0.2841E-03  0.7200E+02
   7.700  0.6237E-06  0.7200E+02
   7.800  0.2083E-09  0.7200E+02
   7.900  0.1020E-13  0.7200E+02
   8.000  0.7153E-19  0.7200E+02
